File: Example_CV/Co_12_100mV_01_CV_02_CV_02_CV_C01.txt
EC-Lab ASCII FILE
Nb header lines : 53

Cyclic Voltammetry

Run on channel : 1 (SN 24330)
User :
CE vs. WE compliance from -10 V to 10 V
Electrode connection : standard
Ewe ctrl range : min = -2,50 V, max = 2,50 V
Safety Limits :
	Do not start on E overload
Acquisition started on : 10/05/2017 17:27:55
Saved on :
	File : Co_12_100mV_01_CV_02_CV_02_CV_C01.mpr
	Directory : C:\Users\usuario\Documents\EC-Lab\Data\Federico\R=H\CO2 reduction\CV_scan rates CO2_0,4 mM_GC 1mm_5-10-2017\
	Host : 192.168.1.115
Device : VSP (SN 1463)
Address : USB
EC-Lab for windows v11.10 (software)
Internet server v11.10 (firmware)
Command interpretor v11.10 (firmware)
Electrode material :
Initial state :
Electrolyte :
Comments :
Electrode surface area : 0,001 cm²
Characteristic mass : 0,001 g
Equivalent Weight : 0,000 g/eq.
Density : 0,000 g/cm3
Ei (V)              0,100
vs.                 Ref
dE/dt               100,000
dE/dt unit          mV/s
E1 (V)              -1,870
vs.                 Ref
Step percent        50
N                   20
E range min (V)     -2,500
E range max (V)     2,500
I Range             Auto
I Range min         Unset
I Range max         Unset
I Range init        Unset
Bandwidth           5
E2 (V)              1,000
vs.                 Ref
nc cycles           0
Reverse Scan        1
Ef (V)              0,000
vs.                 Ref

mode	ox/red	error	control changes	counter inc.	time/s	control/V	Ewe/V	<I>/mA	cycle number	(Q-Qo)/C	Rcmp/Ohm	Capacitance charge/µF	Capacitance discharge/µF	P/W
2	0	0	0	0	2,2736	0,099999994	0,100366689	-0,00023845018586143853	1	0	415,670532	0	0	2,3932456E-008
2	0	0	1	0	3,0841	0,0189499725	0,0183285959	-2,0017095793590176E-005	1	-3,42712276E-008	415,67038	0	0,13004109596886466	3,66885272E-010
2	0	0	1	0	3,9041	-0,0630500317	-0,0637559518	-3,8383949439428998E-005	1	-8,36206411E-008	415,67038	0	0,21430373880190691	2,44720533E-009
2	0	0	1	0	4,7241	-0,145050034	-0,145724908	-5,3588170818317638E-005	1	-1,46948196E-007	415,67038	0	0,30102839382087834	7,80913112E-009
2	0	0	1	0	5,5441	-0,227050081	-0,227686271	-6,3264501791668006E-005	1	-2,1955131E-007	415,67038	0	0,37322082550818573	1,44044581E-008
2	0	0	1	0	6,3641	-0,309050113	-0,309704006	-7,3781744489271859E-005	1	-2,99648804E-007	415,67038	0	0,43461136509582579	2,28505019E-008
2	0	0	1	0	7,1841	-0,39105013	-0,391697079	-7,8639588773392589E-005	1	-3,87248917E-007	415,67038	0	0,49143014996387104	3,0802898E-008
2	0	0	1	0	8,0041	-0,473050177	-0,473690212	-8,3222721376554394E-005	1	-4,77988976E-007	415,67038	0	0,53734333453014918	3,94217885E-008
2	0	0	1	0	8,8241	-0,555050135	-0,555678248	-8,8516093063916774E-005	1	-5,72822387E-007	415,67038	0	0,57884205663956429	4,91864682E-008
2	0	0	1	0	9,6441	-0,637050211	-0,637682915	-9,0586543541647808E-005	1	-6,70070847E-007	415,67038	0	0,61416002334821069	5,77654902E-008
2	0	0	1	0	10,4641	-0,719050229	-0,719625175	-9,4764292283032627E-005	1	-7,70077179E-007	415,67038	0	0,64638318504127488	6,81947725E-008
2	0	0	1	0	11,2841	-0,801050305	-0,801687062	-0,00010282077975513219	1	-8,74340003E-007	415,67038	0	0,67746253947599066	8,24300912E-008
2	0	0	1	0	12,1041	-0,883050323	-0,883724511	-0,0001523423474533328	1	-9,9386898E-007	415,67038	0	0,71950819359406643	1,34628664E-007
2	0	0	1	0	12,9241	-0,96505034	-0,965734243	-0,00098359372541859456	1	-1,36069866E-006	415,67038	0	0,99581707982386112	9,49890136E-007
2	0	0	0	0	13,7459	-1,0472306	-1,04790175	-0,0012826336274692403	1	-2,50050903E-006	415,67038	0	1,9036988424074854	1,34407401E-006
2	0	0	0	0	14,5695	-1,12959003	-1,13018322	-0,00094811079291327526	1	-3,414189E-006	415,67038	0	2,4994791624893619	1,07153892E-006
2	0	0	0	0	15,3931	-1,21195054	-1,21257448	-0,00087221167251827149	1	-4,17419187E-006	415,67038	0	2,9051720097060557	1,0576216E-006
2	0	0	0	0	16,2168	-1,29431939	-1,29493225	-0,00090483178961005965	1	-4,92137224E-006	415,67041	0	3,2556865189121165	1,17169589E-006
2	0	0	1	0	17,0405	-1,37669051	-1,37727582	-0,0010262473893625965	1	-5,72652834E-006	415,67038	0	3,6080358095588646	1,41342571E-006
2	0	0	1	0	17,8642	-1,45905936	-1,45966911	-0,0013644675048220014	1	-6,70062764E-006	415,67041	0	4,0340353965584723	1,99167107E-006
2	0	0	1	0	18,6877	-1,54141057	-1,5419724	-0,0025778623746047709	1	-8,26570158E-006	415,67038	0	4,7833504338687206	3,97499252E-006
2	0	0	1	0	19,5117	-1,62381053	-1,62437582	-0,0044948527764445894	1	-1,11578038E-005	415,67038	0	6,2347707826301107	7,30133024E-006
2	0	0	1	0	20,3354	-1,70617938	-1,70683539	-0,0064312105757330368	1	-1,572783E-005	415,67041	0	8,4823804536781978	1,09770181E-005
2	0	0	1	0	21,1590	-1,78853953	-1,78916061	-0,0067543894472995123	1	-2,13080002E-005	415,67041	0	11,060731743994877	1,20846871E-005
2	0	0	1	0	21,9730	-1,8699398	-1,87073004	-0,0066680051386356352	1	-2,67436371E-005	415,670532	0	13,352714476857186	1,24740372E-005
2	1	0	0	0	22,7759	-1,78979099	-1,7904011	-0,0043473478347693939	1	-3,09769675E-005	415,67038	0	16,160049112676771	7,78349659E-006
2	1	0	0	0	23,6089	-1,70649326	-1,70718753	-0,0033318091910521306	1	-3,40961451E-005	415,67041	0	18,637684300582397	5,68802307E-006
2	1	0	0	0	24,4412	-1,62326193	-1,62381554	-0,0025886548721448214	1	-3,65593696E-005	415,67041	0	20,97732700761993	4,20349807E-006
2	1	0	1	0	25,2738	-1,54000187	-1,54062438	-0,0015098997807885712	1	-3,82596554E-005	415,67041	0	23,084767041722528	2,32618845E-006
2	1	0	0	0	26,1066	-1,45672393	-1,4573549	-0,00065100293153634662	1	-3,90996356E-005	415,67038	0	24,867343271631728	9,48742297E-007
2	1	0	1	0	26,9394	-1,37344193	-1,37409675	-0,00033557169390579283	1	-3,94629787E-005	415,67041	0	26,531470119102672	4,61107987E-007
2	1	0	0	0	27,7737	-1,29001296	-1,29067242	-0,00025403847901221341	1	-3,96815885E-005	415,67041	0	28,295775011423571	3,27880457E-007
2	1	0	0	0	28,6096	-1,20642185	-1,20709276	-0,00023000657809567469	1	-3,98631164E-005	415,67041	0	30,260964475823187	2,77639288E-007
2	1	0	1	0	29,4434	-1,12304187	-1,12368214	-0,00022731342133042131	1	-4,00333411E-005	415,67041	0	32,481336046249312	2,55428034E-007
2	1	0	1	0	30,2785	-1,03953052	-1,04021609	-0,00020047941660849373	1	-4,01980433E-005	415,67038	0	35,023881827207309	2,0854192E-007
2	1	0	0	0	31,1121	-0,956172764	-0,956888914	-7,0184048250038336E-005	1	-4,02933038E-005	415,67041	0	37,897215222120723	6,71583393E-008
2	1	0	1	0	31,9426	-0,873121679	-0,873872757	-1,7967357791113008E-005	1	-4,03025588E-005	415,67041	0	41,161923303085408	1,57011844E-008
2	1	0	0	0	32,7740	-0,789981544	-0,790655255	-1,3365220822662178E-005	1	-4,02943479E-005	415,67041	0	45,027901905880614	1,05672822E-008
2	1	0	0	0	33,6049	-0,706892669	-0,707547843	-1,2484965100757555E-005	1	-4,02847254E-005	415,67041	0	49,684656013675366	8,83370976E-009
2	1	0	1	0	34,4362	-0,623761594	-0,62442565	-1,2510083561931546E-005	1	-4,02742553E-005	415,67041	0	55,412692798450733	7,81161713E-009
2	1	0	0	0	35,2673	-0,540653169	-0,541340888	-1,103502015733301E-005	1	-4,02623082E-005	415,67041	0	62,624263540844122	5,97370775E-009
2	1	0	0	0	36,0927	-0,458110392	-0,458801597	-7,040779380150112E-006	1	-4,02480982E-005	415,67038	0	71,913829803307046	3,2303209E-009
2	1	0	0	0	36,9127	-0,376110345	-0,376822621	-1,1803727092301802E-006	1	-4,02306832E-005	415,67038	0	84,329151730229939	4,44791148E-010
2	1	0	0	0	37,7327	-0,294110358	-0,294734061	3,169075831205591E-006	1	-4,02084552E-005	415,67038	0,019394035354819702	95,148075019433152	9,34034627E-010
2	1	0	0	0	38,5527	-0,212110266	-0,212736979	1,4017988623262909E-005	1	-4,01795114E-005	415,67038	0,06324382424059584	95,148075019433152	2,98214453E-009
2	1	0	0	0	39,3727	-0,130110294	-0,130823836	3,6576825097331411E-005	1	-4,01384095E-005	415,67038	0,13274159339246838	95,148075019433152	4,78512074E-009
2	1	0	0	0	40,1927	-0,0481102355	-0,0488096401	4,0768814144305626E-005	1	-4,00820863E-005	415,67038	0,21624754935845379	95,148075019433152	1,98991112E-009
2	1	0	0	0	41,0127	0,033889778	0,0332517698	3,1324486186397459E-005	1	-4,00323479E-005	415,67038	0,24387037142918378	95,148075019433152	1,04159459E-009
2	1	0	0	0	41,8327	0,115889728	0,11526639	3,6761089576561946E-005	1	-3,9983126E-005	415,67038	0,260585477246012	95,148075019433152	4,23731805E-009
2	1	0	0	0	42,6527	0,197889715	0,197255388	4,221360344415296E-005	1	-3,9930168E-005	415,67038	0,28060536239669482	95,148075019433152	8,32686098E-009
2	1	0	0	0	43,4727	0,279889643	0,279319763	5,4013145671661037E-005	1	-3,98709672E-005	415,67038	0,3078361050122183	95,148075019433152	1,50869397E-008
2	1	0	0	0	44,2927	0,361889631	0,36127463	7,2723395317696781E-005	1	-3,98026241E-005	415,67038	0,34500605879638483	95,148075019433152	2,6273117E-008
2	1	0	0	0	45,1127	0,443889618	0,443277627	9,2437038858861555E-005	1	-3,9719609E-005	415,67038	0,39590376362134835	95,148075019433152	4,0975273E-008
2	1	0	0	0	45,9325	0,525856435	0,525295615	9,5442971892507494E-005	1	-3,96286487E-005	415,67041	0,44821529890156787	95,148075019433152	5,01357746E-008
2	1	0	0	0	46,7533	0,607935429	0,607344329	0,00010312663347404085	1	-3,95364259E-005	415,67041	0,4936166568765705	95,148075019433152	6,26333758E-008
2	1	0	0	0	47,5769	0,690294981	0,689694285	0,00025357821945806019	1	-3,93933842E-005	415,670349	0,58265146529154112	95,148075019433152	1,74891454E-007
2	1	0	0	0	48,4056	0,773164332	0,772562563	0,00031380839606261722	1	-3,91271169E-005	415,67041	0,76868239481154573	95,148075019433152	2,42436613E-007
2	1	0	0	0	49,2275	0,855350256	0,85482806	0,00033341306552277933	1	-3,88553563E-005	415,67038	0,93400826106571456	95,148075019433152	2,85010856E-007
2	1	0	0	0	50,0475	0,937351882	0,936843753	0,00043202068343960525	1	-3,85360654E-005	415,67038	1,1164824079373797	95,148075019433152	4,04735886E-007
2	0	0	0	1	50,8251	0,98494941	0,984424829	0,00041479709467526912	1	-3,81544996E-005	415,67038	1,3606144731669008	95,148075019433152	4,08336547E-007
2	0	0	0	1	51,6451	0,902949572	0,90241313	0,00022316338971737184	1	-3,7917529E-005	415,67038	1,6475615945061354	95,148075019433152	2,01385575E-007
2	0	0	0	1	52,4651	0,820949614	0,820348799	0,0001455643062483535	1	-3,77803626E-005	415,67038	1,8905478014359866	95,148075019433152	1,194135E-007
2	0	0	0	1	53,2851	0,738949597	0,738284349	4,2179263981791821E-005	1	-3,77043689E-005	415,67038	2,1141248791369232	95,148075019433152	3,11402921E-008
2	0	0	0	1	54,1051	0,656949699	0,656289816	-0,0001405738008650963	1	-3,77710567E-005	415,67038	2,14480350724216	71,935383445378176	9,2257153E-008
2	0	0	0	1	54,9251	0,574949682	0,574319482	-0,00012335105587250162	1	-3,78893674E-005	415,67038	2,14480350724216	84,548521035765606	7,08429155E-008
2	0	0	0	1	55,7451	0,492949665	0,492272198	-0,00013419242731958379	1	-3,80057354E-005	415,67038	2,14480350724216	102,42466163821619	6,60592008E-008
2	0	0	0	1	56,5651	0,410949796	0,410325468	-0,00011837928770462776	1	-3,81259088E-005	415,67038	2,14480350724216	129,67165207212765	4,85740372E-008
2	0	0	0	1	57,3851	0,328949779	0,328354031	-7,2113323647882317E-005	1	-3,82210274E-005	415,67038	2,14480350724216	176,22908335657597	2,36786999E-008
2	0	0	0	1	58,2051	0,246949911	0,246315256	-4,4337320549390176E-005	1	-3,82881881E-005	415,67038	2,14480350724216	274,26990322042298	1,09209584E-008
2	0	0	0	1	59,0251	0,164949909	0,164329812	-3,8601711877031475E-005	1	-3,8344715E-005	415,67038	2,14480350724216	615,6983890466391	6,34341202E-009
2	0	0	0	1	59,8451	0,0829499215	0,0823594183	-4,000713816092096E-005	1	-3,84005252E-005	415,67038	2,14480350724216	2537,9503467380637	3,29496452E-009
2	0	0	0	1	60,6646	0,000999983982	0,000410029752	-4,3128864150945568E-005	1	-3,84585401E-005	415,67038	2,14480350724216	415,20343864369997	1,76841181E-011
2	0	0	0	1	60,6744	-1,53413566E-008	-0,000628865557	-5,2006020268891008E-005	1	-3,84592713E-005	415,670532	2,14480350724216	410,85155899463994	3,27047937E-011