File: Example_CV/Co_13_200mV_01_CV_02_CV_02_CV_C01.txt
EC-Lab ASCII FILE
Nb header lines : 53

Cyclic Voltammetry

Run on channel : 1 (SN 24330)
User :
CE vs. WE compliance from -10 V to 10 V
Electrode connection : standard
Ewe ctrl range : min = -2,50 V, max = 2,50 V
Safety Limits :
	Do not start on E overload
Acquisition started on : 10/05/2017 17:30:03
Saved on :
	File : Co_13_200mV_01_CV_02_CV_02_CV_C01.mpr
	Directory : C:\Users\usuario\Documents\EC-Lab\Data\Federico\R=H\CO2 reduction\CV_scan rates CO2_0,4 mM_GC 1mm_5-10-2017\
	Host : 192.168.1.115
Device : VSP (SN 1463)
Address : USB
EC-Lab for windows v11.10 (software)
Internet server v11.10 (firmware)
Command interpretor v11.10 (firmware)
Electrode material :
Initial state :
Electrolyte :
Comments :
Electrode surface area : 0,001 cm²
Characteristic mass : 0,001 g
Equivalent Weight : 0,000 g/eq.
Density : 0,000 g/cm3
Ei (V)              0,100
vs.                 Ref
dE/dt               200,000
dE/dt unit          mV/s
E1 (V)              -1,870
vs.                 Ref
Step percent        50
N                   20
E range min (V)     -2,500
E range max (V)     2,500
I Range             Auto
I Range min         Unset
I Range max         Unset
I Range init        Unset
Bandwidth           5
E2 (V)              1,000
vs.                 Ref
nc cycles           0
Reverse Scan        1
Ef (V)              0,000
vs.                 Ref

mode	ox/red	error	control changes	counter inc.	time/s	control/V	Ewe/V	<I>/mA	cycle number	(Q-Qo)/C	Rcmp/Ohm	P/W
2	0	0	0	0	2,2732	0,0999838337	0,100583836	0,0002801434602588415	1	0	338,910065	2,81779045E-008
2	0	0	1	0	2,6035	0,0339238085	0,033309143	-6,9376185224287846E-005	1	-1,85910309E-008	338,910034	2,31086128E-009
2	0	0	1	0	2,9395	-0,0332761854	-0,0340077914	-9,2255805997721984E-005	1	-4,47392274E-008	338,910034	3,1374161E-009
2	0	0	1	0	3,2755	-0,100476228	-0,101237297	-0,00011504581471243838	1	-7,86533292E-008	338,910034	1,1646927E-008
2	0	0	1	0	3,6115	-0,16767624	-0,168350443	-0,00013196621249004202	1	-1,19456359E-007	338,910034	2,22165699E-008
2	0	0	1	0	3,9475	-0,234876275	-0,235544294	-0,00014337460637354994	1	-1,65035786E-007	338,910034	3,37710695E-008
2	0	0	1	0	4,2835	-0,30207631	-0,302783102	-0,00015587100565745315	1	-2,14370459E-007	338,910034	4,71951083E-008
2	0	0	1	0	4,6195	-0,369276345	-0,369974941	-0,00016475584265519642	1	-2,67849344E-007	338,910034	6,09555357E-008
2	0	0	1	0	4,9555	-0,43647635	-0,437175304	-0,00016762782719755965	1	-3,22824775E-007	338,910034	7,32827488E-008
2	0	0	1	0	5,2915	-0,503676414	-0,50433743	-0,00017161377869350534	1	-3,7897189E-007	338,910034	8,65512533E-008
2	0	0	1	0	5,6275	-0,57087642	-0,57154876	-0,00017476133086602842	1	-4,36546685E-007	338,910034	9,98846232E-008
2	0	0	1	0	5,9635	-0,638076484	-0,638726592	-0,0001781593078073471	1	-4,95142331E-007	338,910034	1,13795089E-007
2	0	0	1	0	6,2995	-0,705276489	-0,705914855	-0,00018216536424512947	1	-5,54843382E-007	338,910034	1,28593243E-007
2	0	0	1	0	6,6355	-0,772476554	-0,773097992	-0,00018721668307937696	1	-6,16139118E-007	338,910034	1,44736845E-007
2	0	0	1	0	6,9715	-0,839676559	-0,84037292	-0,0002021688050075545	1	-6,8000179E-007	338,910034	1,69897191E-007
2	0	0	1	0	7,3075	-0,906876624	-0,907590568	-0,0003206190677310745	1	-7,59715761E-007	338,910034	2,9099084E-007
2	0	0	1	0	7,6435	-0,974076629	-0,974753559	-0,0014058923646891248	1	-1,00080069E-006	338,910034	1,37039854E-006
2	0	0	1	0	7,9795	-1,04127669	-1,04199743	-0,0019515300719241123	1	-1,64678568E-006	338,910034	2,03348941E-006
2	0	0	1	0	8,3155	-1,10847676	-1,10917485	-0,0014512848079631693	1	-2,20804418E-006	338,910034	1,60972866E-006
2	0	0	1	0	8,6515	-1,1756767	-1,17635584	-0,0012452794521299126	1	-2,65437416E-006	338,910034	1,46489174E-006
2	0	0	1	0	8,9875	-1,24287677	-1,24354219	-0,0011940274741806256	1	-3,06070615E-006	338,910034	1,48482354E-006
2	0	0	1	0	9,3235	-1,31007659	-1,31074584	-0,0012125827832661294	1	-3,4627833E-006	338,910034	1,58938781E-006
2	0	0	1	0	9,6595	-1,37727678	-1,37793231	-0,0013222327784205776	1	-3,88451872E-006	338,910034	1,82194731E-006
2	0	0	1	0	9,9955	-1,44447672	-1,44511545	-0,0016122889003446739	1	-4,3702662E-006	338,910034	2,32994353E-006
2	0	0	1	0	10,3315	-1,51167679	-1,51231873	-0,0024280633559962752	1	-5,02199237E-006	338,910034	3,67200573E-006
2	0	0	1	0	10,6675	-1,57887673	-1,57950282	-0,003966589994473767	1	-6,0884413E-006	338,910034	6,26524024E-006
2	0	0	1	0	11,0035	-1,64607692	-1,64677465	-0,0058466180055307955	1	-7,72586372E-006	338,910034	9,62806189E-006
2	0	0	1	0	11,3395	-1,7132771	-1,71395612	-0,0078121249368306586	1	-1,00298348E-005	338,910034	1,33896392E-005
2	0	0	1	0	11,6755	-1,78047705	-1,78113616	-0,0086618407260908582	1	-1,28445708E-005	338,910034	1,54279169E-005
2	0	0	1	0	12,0115	-1,84767711	-1,84829843	-0,0084858307078288512	1	-1,57294726E-005	338,910034	1,56843471E-005
2	1	0	1	0	12,3219	-1,83021712	-1,83084977	-0,0063546093063274739	1	-1,81056785E-005	338,910034	1,16343354E-005
2	1	0	1	0	12,6579	-1,76301718	-1,76362729	-0,0045869276939157005	1	-1,99155729E-005	338,910034	8,08963068E-006
2	1	0	1	0	12,9939	-1,69581711	-1,69643545	-0,0035852401772564557	1	-2,1273836E-005	338,910034	6,08212849E-006
2	1	0	1	0	13,3299	-1,62861729	-1,62914014	-0,0027558372545300019	1	-2,23436418E-005	338,910034	4,48964511E-006
2	1	0	1	0	13,6659	-1,5614171	-1,56195116	-0,0017446225360720006	1	-2,31025406E-005	338,910034	2,72501529E-006
2	1	0	1	0	14,0019	-1,49421692	-1,49478066	-0,00083205077558694963	1	-2,35266834E-005	338,910034	1,24373344E-006
2	1	0	1	0	14,3379	-1,42701697	-1,42760026	-0,00032129496560572435	1	-2,37092918E-005	338,910034	4,58680773E-007
2	1	0	1	0	14,6739	-1,35981703	-1,36040664	-0,00011429871373816805	1	-2,37770655E-005	338,910034	1,55492728E-007
2	1	0	1	0	15,0099	-1,29261696	-1,29317737	-4,0067447835368365E-005	1	-2,38009434E-005	338,910034	5,18143182E-008
2	1	0	1	0	15,3459	-1,2254169	-1,22601783	-9,2561256082112986E-006	1	-2,3808836E-005	338,910034	1,13481748E-008
2	1	0	1	0	15,6819	-1,15821683	-1,15883255	7,3367743641119757E-006	1	-2,3809007E-005	338,910034	8,50209325E-009
2	1	0	1	0	16,0179	-1,09101689	-1,09165394	1,7556680397459206E-005	1	-2,3805098E-005	338,910034	1,91658192E-008
2	1	0	1	0	16,3539	-1,02381682	-1,02446449	3,0794315043979027E-005	1	-2,37975983E-005	338,910034	3,15476818E-008
2	1	0	1	0	16,6899	-0,956616759	-0,957228243	4,9360505671141056E-005	1	-2,37839722E-005	338,910034	4,72492694E-008
2	1	0	1	0	17,0259	-0,889416754	-0,890063167	6,0432211714749325E-005	1	-2,37651639E-005	338,910034	5,37884866E-008
2	1	0	1	0	17,3619	-0,822216749	-0,822786331	6,8147810881319949E-005	1	-2,37436543E-005	338,910034	5,60710873E-008
2	1	0	1	0	17,6979	-0,755016685	-0,755601645	7,0337193180417805E-005	1	-2,37206841E-005	338,910034	5,31468984E-008
2	1	0	1	0	18,0339	-0,687816679	-0,688412905	7,384322086566793E-005	1	-2,36964315E-005	338,910034	5,08346254E-008
2	1	0	1	0	18,3699	-0,620616615	-0,621180296	7,7378563984989914E-005	1	-2,36708238E-005	338,910034	4,80660383E-008
2	1	0	1	0	18,7059	-0,55341661	-0,5540061	8,3047167925885696E-005	1	-2,36437809E-005	338,910034	4,60086369E-008
2	1	0	1	0	19,0419	-0,486216635	-0,48677206	8,8885796421871616E-005	1	-2,36150499E-005	338,910034	4,32671214E-008
2	1	0	1	0	19,3779	-0,41901657	-0,419656754	0,00010133445273976507	1	-2,35833559E-005	338,910034	4,25256879E-008
2	1	0	1	0	19,7139	-0,351816505	-0,352427214	0,00011402348478608669	1	-2,35471125E-005	338,910034	4,01849789E-008
2	1	0	1	0	20,0499	-0,28461647	-0,285217285	0,00012750986585667373	1	-2,35066564E-005	338,910034	3,63680179E-008
2	1	0	1	0	20,3859	-0,217416465	-0,218016237	0,00014754347108093683	1	-2,34605268E-005	338,910034	3,21668736E-008
2	1	0	1	0	20,7219	-0,150216445	-0,150852636	0,00018065975245419238	1	-2,34055115E-005	338,910034	2,72529999E-008
2	1	0	1	0	21,0579	-0,0830164105	-0,0837040544	0,00021239657336847955	1	-2,33393694E-005	338,910034	1,77784543E-008
2	1	0	1	0	21,3939	-0,0158163812	-0,0164689627	0,00023590688386863555	1	-2,32642305E-005	338,910034	3,88514154E-009
2	1	0	1	0	21,7299	0,0513836071	0,0508565046	0,00025780402459755005	1	-2,31813192E-005	338,910034	1,31110118E-008
2	1	0	1	0	22,0659	0,118583575	0,118073881	0,0002729848275748745	1	-2,30921614E-005	338,910034	3,22323785E-008
2	1	0	1	0	22,4019	0,18578352	0,18523699	0,00027845325905274422	1	-2,29998004E-005	338,910034	5,15798426E-008
2	1	0	1	0	22,7379	0,25298351	0,252444804	0,00028390241861312589	1	-2,29059642E-005	338,910034	7,16696889E-008
2	1	0	1	0	23,0739	0,320183516	0,319586784	0,0003037701867848841	1	-2,28086737E-005	338,910034	9,70809353E-008
2	1	0	1	0	23,4099	0,387383431	0,386826396	0,00038593900144366099	1	-2,26954617E-005	338,910034	1,49291395E-007
2	1	0	1	0	23,7459	0,454583466	0,454015672	0,00041671596675753491	1	-2,25559379E-005	338,910034	1,89195575E-007
2	1	0	1	0	24,0638	0,518162727	0,517528653	0,00037784257545088973	1	-2,24301039E-005	338,909943	1,95544359E-007
2	1	0	1	0	24,3433	0,574062288	0,57342273	0,00035838197813151219	1	-2,23276147E-005	338,909912	2,05504378E-007
2	1	0	0	0	24,6232	0,630035579	0,629472911	0,00038011688403590675	1	-2,22261842E-005	338,909912	2,39273277E-007
2	1	0	0	0	24,9020	0,68579334	0,685224831	0,00054620916639436557	1	-2,21005321E-005	338,909912	3,74276084E-007
2	1	0	0	0	25,1807	0,741533458	0,740941823	0,000639193684593648	1	-2,19284284E-005	338,909912	4,73605326E-007
2	1	0	0	0	25,4600	0,797393739	0,796799779	0,00058418444250207987	1	-2,17575671E-005	338,909943	4,65478024E-007
2	1	0	0	0	25,7400	0,853395045	0,852898717	0,00056691979672034086	1	-2,15972723E-005	338,909943	4,83525184E-007
2	1	0	0	0	26,0200	0,90939647	0,908891678	0,0005901059615780512	1	-2,14360098E-005	338,909943	5,36342384E-007
2	1	0	1	0	26,2997	0,965333641	0,964850247	0,00064907198331658458	1	-2,12633477E-005	338,909912	6,26257247E-007
2	0	0	0	1	26,5759	0,979523301	0,978953063	0,00042670135352588979	1	-2,10960588E-005	338,910034	4,17720599E-007
2	0	0	0	1	26,9119	0,912323415	0,911748052	0,00024583865111955667	1	-2,09867831E-005	338,910034	2,24142909E-007
2	0	0	0	1	27,2479	0,84512347	0,844547629	0,00016038828835805619	1	-2,09186092E-005	338,910034	1,35455551E-007
2	0	0	0	1	27,5839	0,777923524	0,777261794	9,1617913650871974E-005	1	-2,08746496E-005	338,910034	7,12111046E-008
2	0	0	0	1	27,9199	0,710723579	0,710058093	-0,00010851201260283898	1	-2,08707497E-005	338,910034	7,70498332E-008
2	0	0	0	1	28,2559	0,643523574	0,642864585	-0,00022729224484033856	1	-2,09370155E-005	338,910034	1,4611814E-007
2	0	0	0	1	28,5919	0,576323569	0,575679362	-0,00019138941139804163	1	-2,10055714E-005	338,910034	1,10178931E-007
2	0	0	0	1	28,9279	0,509123623	0,508482933	-0,00019792153935477024	1	-2,10689595E-005	338,910034	1,00639724E-007
2	0	0	0	1	29,2639	0,441923618	0,441300988	-0,0002172926276711104	1	-2,11381848E-005	338,910034	9,58914512E-008
2	0	0	0	1	29,5999	0,374723673	0,37407732	-0,00021400604522600531	1	-2,12111881E-005	338,910034	8,00548108E-008
2	0	0	0	1	29,9359	0,307523698	0,306875408	-0,00018812459922046093	1	-2,12782852E-005	338,910034	5,77308121E-008
2	0	0	0	1	30,2719	0,240323722	0,239654511	-0,00016748126634873738	1	-2,13364965E-005	338,910034	4,01376425E-008
2	0	0	0	1	30,6079	0,173123762	0,172477931	-0,00015853863815887661	1	-2,1389731E-005	338,910034	2,73444165E-008
2	0	0	0	1	30,9439	0,105923772	0,105302252	-0,0001568325253260167	1	-2,14417087E-005	338,910034	1,6514818E-008
2	0	0	0	1	31,2799	0,0387238115	0,0380929112	-0,00015713823436052515	1	-2,14935735E-005	338,910034	5,9858527E-009
2	0	0	0	1	31,4734	2,382409E-005	-0,000706749212	-0,00018310257291886957	1	-2,15235468E-005	338,910065	1,29407596E-010